 EXTRASOLAR GIANT PLANET ATMOSPHERE MODEL


 e-                                                                             
         
 Done reading abundances. Reading k-coefficients now...
         180
          25           4           4  0.950000000000000                8
      H2O     CO2      O3      CO     CH4      O2     NH3      OH     OCS
       N2     HCN    C2H2    C2H6     PH3     H2S    C2H4     SiH      VO
      FeH     CrH     TiO    LiCl     SiO     MgH     CaH
 New BD calculation with 1060 layers : 25 species : 180 bins for Mark : new CH4 
 w
 done reading k-coeffs
                     New BD calculation with 1060 layers : 25 species : 180 bins for Mark : new CH4 w
 Species used in line by line calculations [excluding alkali]
  1       H2O
  2       CO2
  3        O3
  4        CO
  5       CH4
  6        O2
  7       NH3
  8        OH
  9       OCS
 10        N2
 11       HCN
 12      C2H2
 13      C2H6
 14       PH3
 15       H2S
 16      C2H4
 17       SiH
 18        VO
 19       FeH
 20       CrH
 21       TiO
 22      LiCl
 23       SiO
 24       MgH
 25       CaH
 min_log: ilayers  -160.0 1060
 n_window nc_t nc_p ngauss1 ngauss2 gfrac igtot         180          60
          15          16          17          17          17          17
          17          17          17          17          17          17
          17          17          17          17          17          18
          18          18          18          18          18          18
          18          18          18          18          18          18
          18          18          18          18          18          18
          18          18          18          18          18          18
          18          18          18          18          18          18
          18          18          18          18          18          18
          18          18          18          18          18          18
           4           4  0.950000000000000                8
  1 6.59602520E-02 1.65231051E-01
  2 3.13509004E-01 3.09768949E-01
  3 6.36490996E-01 3.09768949E-01
  4 8.84039748E-01 1.65231051E-01
  5 9.53471592E-01 8.69637113E-03
  6 9.66500474E-01 1.63036289E-02
  7 9.83499526E-01 1.63036289E-02
  8 9.96528408E-01 8.69637113E-03



  SPECTRAL INTERVALS

 SNUM  MICRONS   WAVENU      INTERVAL           DELTA-WN  K-COEF WINDOW
         180
   1   227.531     43.95     30.80-   57.10    26.300    43.950
   2   138.793     72.05     57.10-   87.00    29.900    72.050
   3    97.752    102.30     87.00-  117.60    30.600   102.300
   4    73.692    135.70    117.60-  153.80    36.200   135.700
   5    53.879    185.60    153.80-  217.40    63.600   185.600
   6    42.212    236.90    217.40-  256.40    39.000   236.900
   7    35.753    279.70    256.40-  303.00    46.600   279.700
   8    29.700    336.70    303.00-  370.40    67.400   336.700
   9    24.839    402.60    370.40-  434.80    64.400   402.600
  10    21.395    467.40    434.80-  500.00    65.200   467.400
  11    19.382    515.95    500.00-  531.90    31.900   515.950
  12    18.180    550.05    531.90-  568.20    36.300   550.050
  13    16.978    589.00    568.20-  609.80    41.600   589.000
  14    15.777    633.85    609.80-  657.90    48.100   633.850
  15    14.575    686.10    657.90-  714.30    56.400   686.100
  16    13.588    735.95    714.30-  757.60    43.300   735.950
  17    12.787    782.05    757.60-  806.50    48.900   782.050
  18    11.986    834.30    806.50-  862.10    55.600   834.300
  19    11.292    885.60    862.10-  909.10    47.000   885.600
  20    10.692    935.30    909.10-  961.50    52.400   935.300
  21    10.091    990.95    961.50- 1020.40    58.900   990.950
  22     9.648   1036.50   1020.40- 1052.60    32.200  1036.500
  23     9.348   1069.80   1052.60- 1087.00    34.400  1069.800
  24     8.995   1111.70   1087.00- 1136.40    49.400  1111.700
  25     8.673   1153.00   1136.40- 1169.60    33.200  1153.000
  26     8.345   1198.30   1169.60- 1227.00    57.400  1198.300
  27     8.074   1238.50   1227.00- 1250.00    23.000  1238.500
  28     7.904   1265.20   1250.00- 1280.40    30.400  1265.200
  29     7.714   1296.35   1280.40- 1312.30    31.900  1296.350
  30     7.498   1333.65   1312.30- 1355.00    42.700  1333.650
  31     7.284   1372.90   1355.00- 1390.80    35.800  1372.900
  32     7.094   1409.70   1390.80- 1428.60    37.800  1409.700
  33     6.873   1455.05   1428.60- 1481.50    52.900  1455.050
  34     6.664   1500.65   1481.50- 1519.80    38.300  1500.650
  35     6.515   1534.85   1519.80- 1549.90    30.100  1534.850
  36     6.297   1587.95   1549.90- 1626.00    76.100  1587.950
  37     6.064   1649.10   1626.00- 1672.20    46.200  1649.100
  38     5.899   1695.20   1672.20- 1718.20    46.000  1695.200
  39     5.759   1736.30   1718.20- 1754.40    36.200  1736.300
  40     5.572   1794.65   1754.40- 1834.90    80.500  1794.650
  41     5.379   1859.05   1834.90- 1883.20    48.300  1859.050
  42     5.265   1899.45   1883.20- 1915.70    32.500  1899.450
  43     5.149   1942.10   1915.70- 1968.50    52.800  1942.100
  44     5.000   2000.10   1968.50- 2031.70    63.200  2000.100
  45     4.882   2048.50   2031.70- 2065.30    33.600  2048.500
  46     4.827   2071.50   2065.30- 2077.70    12.400  2071.500
  47     4.796   2084.90   2077.70- 2092.10    14.400  2084.900
  48     4.750   2105.35   2092.10- 2118.60    26.500  2105.350
  49     4.700   2127.70   2118.60- 2136.80    18.200  2127.700
  50     4.662   2144.85   2136.80- 2152.90    16.100  2144.850
  51     4.605   2171.55   2152.90- 2190.20    37.300  2171.550
  52     4.504   2220.20   2190.20- 2250.20    60.000  2220.200
  53     4.347   2300.20   2250.20- 2350.20   100.000  2300.200
  54     4.202   2379.90   2350.20- 2409.60    59.400  2379.900
  55     4.074   2454.80   2409.60- 2500.00    90.400  2454.800
  56     3.949   2532.05   2500.00- 2564.10    64.100  2532.050
  57     3.849   2597.85   2564.10- 2631.60    67.500  2597.850
  58     3.749   2667.15   2631.60- 2702.70    71.100  2667.150
  59     3.662   2730.65   2702.70- 2758.60    55.900  2730.650
  60     3.587   2787.75   2758.60- 2816.90    58.300  2787.750
  61     3.473   2879.05   2816.90- 2941.20   124.300  2879.050
  62     3.363   2973.20   2941.20- 3005.20    64.000  2973.200
  63     3.308   3023.12   3005.20- 3041.05    35.850  3023.125
  64     3.269   3058.98   3041.05- 3076.90    35.850  3058.975
  65     3.231   3095.07   3076.90- 3113.25    36.350  3095.075
  66     3.193   3131.43   3113.25- 3149.60    36.350  3131.425
  67     3.156   3168.65   3149.60- 3187.70    38.100  3168.650
  68     3.118   3206.75   3187.70- 3225.80    38.100  3206.750
  69     3.085   3241.73   3225.80- 3257.65    31.850  3241.725
  70     3.055   3273.57   3257.65- 3289.50    31.850  3273.575
  71     3.014   3317.32   3289.50- 3345.15    55.650  3317.325
  72     2.965   3372.98   3345.15- 3400.80    55.650  3372.975
  73     2.909   3438.10   3400.80- 3475.40    74.600  3438.100
  74     2.847   3512.70   3475.40- 3550.00    74.600  3512.700
  75     2.787   3587.50   3550.00- 3625.00    75.000  3587.500
  76     2.730   3662.50   3625.00- 3700.00    75.000  3662.500
  77     2.676   3737.50   3700.00- 3775.00    75.000  3737.500
  78     2.623   3812.50   3775.00- 3850.00    75.000  3812.500
  79     2.574   3885.65   3850.00- 3921.30    71.300  3885.650
  80     2.527   3956.95   3921.30- 3992.60    71.300  3956.950
  81     2.482   4029.65   3992.60- 4066.70    74.100  4029.650
  82     2.437   4103.75   4066.70- 4140.80    74.100  4103.750
  83     2.384   4194.85   4140.80- 4248.90   108.100  4194.850
  84     2.324   4302.95   4248.90- 4357.00   108.100  4302.950
  85     2.276   4392.75   4357.00- 4428.50    71.500  4392.750
  86     2.240   4464.25   4428.50- 4500.00    71.500  4464.250
  87     2.209   4527.07   4500.00- 4554.15    54.150  4527.075
  88     2.183   4581.23   4554.15- 4608.30    54.150  4581.225
  89     2.163   4624.23   4608.30- 4640.15    31.850  4624.225
  90     2.148   4656.07   4640.15- 4672.00    31.850  4656.075
  91     2.137   4680.48   4672.00- 4688.95    16.950  4680.475
  92     2.129   4697.42   4688.95- 4705.90    16.950  4697.425
  93     2.114   4731.35   4705.90- 4756.80    50.900  4731.350
  94     2.091   4782.25   4756.80- 4807.70    50.900  4782.250
  95     2.070   4831.27   4807.70- 4854.85    47.150  4831.275
  96     2.050   4878.43   4854.85- 4902.00    47.150  4878.425
  97     2.030   4926.50   4902.00- 4951.00    49.000  4926.500
  98     2.010   4975.50   4951.00- 5000.00    49.000  4975.500
  99     1.982   5045.32   5000.00- 5090.65    90.650  5045.325
 100     1.947   5135.98   5090.65- 5181.30    90.650  5135.975
 101     1.916   5218.48   5181.30- 5255.65    74.350  5218.475
 102     1.889   5292.82   5255.65- 5330.00    74.350  5292.825
 103     1.857   5386.40   5330.00- 5442.80   112.800  5386.400
 104     1.818   5499.20   5442.80- 5555.60   112.800  5499.200
 105     1.788   5591.70   5555.60- 5627.80    72.200  5591.700
 106     1.766   5663.90   5627.80- 5700.00    72.200  5663.900
 107     1.740   5745.60   5700.00- 5791.20    91.200  5745.600
 108     1.713   5836.80   5791.20- 5882.40    91.200  5836.800
 109     1.692   5911.80   5882.40- 5941.20    58.800  5911.800
 110     1.675   5970.60   5941.20- 6000.00    58.800  5970.600
 111     1.660   6025.00   6000.00- 6050.00    50.000  6025.000
